Wavelength(nm)  Transmission(a.u.)
500	2.3728E-5
500.5	3.1171E-5
501	4.0614E-5
501.5	5.2501E-5
502	6.7349E-5
502.5	8.5758E-5
503	1.0842E-4
503.5	1.3612E-4
504	1.6976E-4
504.5	2.1033E-4
505	2.5897E-4
505.5	3.1693E-4
506	3.8557E-4
506.5	4.6641E-4
507	5.6108E-4
507.5	6.7135E-4
508	7.9913E-4
508.5	9.4644E-4
509	0.00112
509.5	0.00131
510	0.00153
510.5	0.00178
511	0.00205
511.5	0.00237
512	0.00272
512.5	0.00311
513	0.00354
513.5	0.00402
514	0.00454
514.5	0.00511
515	0.00574
515.5	0.00643
516	0.00718
516.5	0.00799
517	0.00886
517.5	0.00981
518	0.01083
518.5	0.01193
519	0.0131
519.5	0.01437
520	0.01572
520.5	0.01716
521	0.0187
521.5	0.02034
522	0.02208
522.5	0.02393
523	0.02588
523.5	0.02794
524	0.03011
524.5	0.03238
525	0.03476
525.5	0.03724
526	0.03981
526.5	0.04247
527	0.0452
527.5	0.048
528	0.05086
528.5	0.05376
529	0.05669
529.5	0.05964
530	0.06259
530.5	0.06553
531	0.06845
531.5	0.07135
532	0.07421
532.5	0.07705
533	0.07985
533.5	0.08263
534	0.08538
534.5	0.08813
535	0.09087
535.5	0.09363
536	0.09643
536.5	0.09928
537	0.10221
537.5	0.10523
538	0.10836
538.5	0.11164
539	0.11508
539.5	0.11872
540	0.12257
540.5	0.12666
541	0.13101
541.5	0.13565
542	0.1406
542.5	0.14589
543	0.15153
543.5	0.15755
544	0.16394
544.5	0.17074
545	0.17793
545.5	0.18551
546	0.19346
546.5	0.20177
547	0.21038
547.5	0.21924
548	0.22828
548.5	0.23741
549	0.24653
549.5	0.2555
550	0.26419
550.5	0.27247
551	0.28018
551.5	0.28718
552	0.29336
552.5	0.2986
553	0.30283
553.5	0.30601
554	0.30813
554.5	0.30921
555	0.30932
555.5	0.30854
556	0.30697
556.5	0.30475
557	0.302
557.5	0.29885
558	0.29543
558.5	0.29185
559	0.28823
559.5	0.28467
560	0.28125
560.5	0.27804
561	0.27511
561.5	0.27252
562	0.2703
562.5	0.26849
563	0.26713
563.5	0.26625
564	0.26586
564.5	0.266
565	0.26668
565.5	0.26793
566	0.26977
566.5	0.27221
567	0.27528
567.5	0.27901
568	0.28342
568.5	0.28853
569	0.29439
569.5	0.301
570	0.30842
570.5	0.31666
571	0.32576
571.5	0.33574
572	0.34662
572.5	0.35843
573	0.37117
573.5	0.38483
574	0.39939
574.5	0.41481
575	0.43102
575.5	0.4479
576	0.46534
576.5	0.48313
577	0.50107
577.5	0.51888
578	0.53626
578.5	0.55285
579	0.56829
579.5	0.5822
580	0.59422
580.5	0.60403
581	0.61135
581.5	0.61601
582	0.6179
582.5	0.61702
583	0.61348
583.5	0.60747
584	0.59925
584.5	0.58914
585	0.57747
585.5	0.5646
586	0.55087
586.5	0.5366
587	0.52209
587.5	0.50757
588	0.49327
588.5	0.47935
589	0.46595
589.5	0.45318
590	0.44112
590.5	0.42981
591	0.4193
591.5	0.40961
592	0.40074
592.5	0.3927
593	0.38547
593.5	0.37906
594	0.37345
594.5	0.36862
595	0.36456
595.5	0.36126
596	0.35871
596.5	0.3569
597	0.35582
597.5	0.35547
598	0.35584
598.5	0.35694
599	0.35877
599.5	0.36133
600	0.36464
600.5	0.36871
601	0.37356
601.5	0.37919
602	0.38563
602.5	0.39291
603	0.40104
603.5	0.41006
604	0.41998
604.5	0.43082
605	0.44262
605.5	0.45539
606	0.46914
606.5	0.48388
607	0.49959
607.5	0.51627
608	0.53388
608.5	0.55236
609	0.57163
609.5	0.59158
610	0.61208
610.5	0.63293
611	0.65393
611.5	0.67482
612	0.6953
612.5	0.71506
613	0.73373
613.5	0.75096
614	0.76638
614.5	0.77964
615	0.79043
615.5	0.79849
616	0.80362
616.5	0.80573
617	0.80479
617.5	0.80088
618	0.79413
618.5	0.78478
619	0.77311
619.5	0.75944
620	0.74411
620.5	0.72746
621	0.70985
621.5	0.69159
622	0.67298
622.5	0.65426
623	0.63567
623.5	0.61739
624	0.59957
624.5	0.58234
625	0.56579
625.5	0.54999
626	0.53499
626.5	0.52082
627	0.50749
627.5	0.49502
628	0.48339
628.5	0.47261
629	0.46265
629.5	0.4535
630	0.44514
630.5	0.43754
631	0.43069
631.5	0.42457
632	0.41915
632.5	0.41441
633	0.41034
633.5	0.40692
634	0.40414
634.5	0.40199
635	0.40045
635.5	0.39951
636	0.39917
636.5	0.39943
637	0.40028
637.5	0.40172
638	0.40375
638.5	0.40637
639	0.4096
639.5	0.41343
640	0.41787
640.5	0.42294
641	0.42864
641.5	0.43499
642	0.442
642.5	0.44968
643	0.45804
643.5	0.46711
644	0.47689
644.5	0.48739
645	0.49863
645.5	0.51061
646	0.52334
646.5	0.53681
647	0.55102
647.5	0.56596
648	0.5816
648.5	0.59791
649	0.61485
649.5	0.63236
650	0.65035
650.5	0.66875
651	0.68744
651.5	0.7063
652	0.72516
652.5	0.74387
653	0.76224
653.5	0.78006
654	0.79711
654.5	0.81317
655	0.82801
655.5	0.84141
656	0.85315
656.5	0.86305
657	0.87093
657.5	0.87667
658	0.88017
658.5	0.88138
659	0.88032
659.5	0.87701
660	0.87155
660.5	0.86406
661	0.8547
661.5	0.84366
662	0.83114
662.5	0.81735
663	0.80251
663.5	0.78684
664	0.77053
664.5	0.75379
665	0.73678
665.5	0.71968
666	0.70263
666.5	0.68575
667	0.66914
667.5	0.6529
668	0.6371
668.5	0.6218
669	0.60705
669.5	0.59287
670	0.5793
670.5	0.56635
671	0.55403
671.5	0.54235
672	0.5313
672.5	0.52088
673	0.51108
673.5	0.50189
674	0.4933
674.5	0.4853
675	0.47787
675.5	0.471
676	0.46467
676.5	0.45888
677	0.4536
677.5	0.44883
678	0.44455
678.5	0.44075
679	0.43743
679.5	0.43456
680	0.43215
680.5	0.43018
681	0.42865
681.5	0.42754
682	0.42687
682.5	0.42661
683	0.42678
683.5	0.42736
684	0.42835
684.5	0.42976
685	0.43158
685.5	0.43381
686	0.43647
686.5	0.43954
687	0.44303
687.5	0.44695
688	0.45131
688.5	0.45609
689	0.46132
689.5	0.467
690	0.47312
690.5	0.47971
691	0.48676
691.5	0.49428
692	0.50228
692.5	0.51076
693	0.51972
693.5	0.52917
694	0.53911
694.5	0.54954
695	0.56045
695.5	0.57185
696	0.58371
696.5	0.59604
697	0.60882
697.5	0.62203
698	0.63563
698.5	0.64961
699	0.66392
699.5	0.67853
700	0.69337
700.5	0.7084
701	0.72355
701.5	0.73873
702	0.75388
702.5	0.7689
703	0.78369
703.5	0.79815
704	0.81218
704.5	0.82566
705	0.83847
705.5	0.8505
706	0.86164
706.5	0.87178
707	0.88081
707.5	0.88864
708	0.8952
708.5	0.90041
709	0.90421
709.5	0.90659
710	0.9075
710.5	0.90697
711	0.905
711.5	0.90164
712	0.89692
712.5	0.89093
713	0.88375
713.5	0.87545
714	0.86615
714.5	0.85594
715	0.84493
715.5	0.83324
716	0.82096
716.5	0.80821
717	0.79509
717.5	0.7817
718	0.76811
718.5	0.75443
719	0.74072
719.5	0.72705
720	0.71349
720.5	0.70009
721	0.6869
721.5	0.67396
722	0.66131
722.5	0.64897
723	0.63697
723.5	0.62532
724	0.61406
724.5	0.60318
725	0.59269
725.5	0.58261
726	0.57293
726.5	0.56365
727	0.55478
727.5	0.54631
728	0.53825
728.5	0.53057
729	0.52329
729.5	0.51639
730	0.50987
730.5	0.50371
731	0.49793
731.5	0.4925
732	0.48742
732.5	0.48268
733	0.47828
733.5	0.47421
734	0.47046
734.5	0.46704
735	0.46392
735.5	0.46111
736	0.4586
736.5	0.45639
737	0.45447
737.5	0.45284
738	0.4515
738.5	0.45043
739	0.44964
739.5	0.44913
740	0.44889
740.5	0.44892
741	0.44922
741.5	0.44978
742	0.45062
742.5	0.45172
743	0.45308
743.5	0.45471
744	0.45661
744.5	0.45878
745	0.46121
745.5	0.46391
746	0.46689
746.5	0.47013
747	0.47364
747.5	0.47744
748	0.4815
748.5	0.48585
749	0.49048
749.5	0.49539
750	0.50059
750.5	0.50607
751	0.51184
751.5	0.51791
752	0.52427
752.5	0.53092
753	0.53786
753.5	0.5451
754	0.55264
754.5	0.56047
755	0.56859
755.5	0.577
756	0.5857
756.5	0.59468
757	0.60394
757.5	0.61346
758	0.62325
758.5	0.63329
759	0.64357
759.5	0.65408
760	0.66479
760.5	0.67569
761	0.68677
761.5	0.69799
762	0.70934
762.5	0.72078
763	0.73228
763.5	0.74382
764	0.75535
764.5	0.76683
765	0.77823
765.5	0.78949
766	0.80058
766.5	0.81145
767	0.82205
767.5	0.83232
768	0.84222
768.5	0.8517
769	0.8607
769.5	0.86917
770	0.87707
770.5	0.88435
771	0.89097
771.5	0.89689
772	0.90206
772.5	0.90647
773	0.91009
773.5	0.91289
774	0.91486
774.5	0.91599
775	0.91628
775.5	0.91573
776	0.91436
776.5	0.91218
777	0.9092
777.5	0.90547
778	0.901
778.5	0.89583
779	0.89001
779.5	0.88357
780	0.87655
780.5	0.86902
781	0.861
781.5	0.85255
782	0.84372
782.5	0.83456
783	0.82511
783.5	0.81541
784	0.80552
784.5	0.79546
785	0.7853
785.5	0.77505
786	0.76476
786.5	0.75445
787	0.74417
787.5	0.73394
788	0.72378
788.5	0.71371
789	0.70377
789.5	0.69396
790	0.68431
790.5	0.67482
791	0.66552
791.5	0.65641
792	0.6475
792.5	0.6388
793	0.63032
793.5	0.62207
794	0.61404
794.5	0.60624
795	0.59867
795.5	0.59134
796	0.58424
796.5	0.57738
797	0.57076
797.5	0.56437
798	0.55821
798.5	0.55229
799	0.5466
799.5	0.54113
800	0.53589
800.5	0.53087
801	0.52608
801.5	0.52149
802	0.51713
802.5	0.51298
803	0.50903
803.5	0.50529
804	0.50175
804.5	0.49842
805	0.49528
805.5	0.49233
806	0.48958
806.5	0.48701
807	0.48463
807.5	0.48244
808	0.48042
808.5	0.47859
809	0.47693
809.5	0.47545
810	0.47414
810.5	0.47301
811	0.47204
811.5	0.47124
812	0.47061
812.5	0.47014
813	0.46984
813.5	0.46971
814	0.46973
814.5	0.46992
815	0.47026
815.5	0.47077
816	0.47143
816.5	0.47226
817	0.47324
817.5	0.47438
818	0.47569
818.5	0.47714
819	0.47876
819.5	0.48054
820	0.48247
820.5	0.48456
821	0.48682
821.5	0.48923
822	0.4918
822.5	0.49453
823	0.49742
823.5	0.50048
824	0.50369
824.5	0.50707
825	0.51061
825.5	0.51432
826	0.51819
826.5	0.52222
827	0.52642
827.5	0.53078
828	0.53531
828.5	0.54001
829	0.54487
829.5	0.54989
830	0.55509
830.5	0.56045
831	0.56597
831.5	0.57166
832	0.57751
832.5	0.58352
833	0.58969
833.5	0.59602
834	0.60251
834.5	0.60916
835	0.61595
835.5	0.62289
836	0.62998
836.5	0.6372
837	0.64456
837.5	0.65205
838	0.65966
838.5	0.66739
839	0.67523
839.5	0.68317
840	0.6912
840.5	0.69932
841	0.70751
841.5	0.71577
842	0.72408
842.5	0.73242
843	0.7408
843.5	0.74918
844	0.75756
844.5	0.76593
845	0.77426
845.5	0.78254
846	0.79075
846.5	0.79888
847	0.8069
847.5	0.8148
848	0.82255
848.5	0.83015
849	0.83755
849.5	0.84476
850	0.85174
850.5	0.85847
851	0.86495
851.5	0.87113
852	0.87702
852.5	0.88259
853	0.88782
853.5	0.89269
854	0.8972
854.5	0.90132
855	0.90504
855.5	0.90835
856	0.91124
856.5	0.9137
857	0.91573
857.5	0.91732
858	0.91846
858.5	0.91915
859	0.9194
859.5	0.9192
860	0.91856
860.5	0.91748
861	0.91598
861.5	0.91405
862	0.91171
862.5	0.90897
863	0.90585
863.5	0.90235
864	0.89849
864.5	0.89428
865	0.88975
865.5	0.88491
866	0.87978
866.5	0.87438
867	0.86872
867.5	0.86282
868	0.8567
868.5	0.85039
869	0.84389
869.5	0.83724
870	0.83043
870.5	0.8235
871	0.81647
871.5	0.80933
872	0.80213
872.5	0.79486
873	0.78754
873.5	0.78019
874	0.77282
874.5	0.76545
875	0.75808
875.5	0.75073
876	0.74341
876.5	0.73612
877	0.72889
877.5	0.72171
878	0.71459
878.5	0.70754
879	0.70058
879.5	0.69369
880	0.6869
880.5	0.6802
881	0.67361
881.5	0.66711
882	0.66073
882.5	0.65446
883	0.6483
883.5	0.64225
884	0.63633
884.5	0.63053
885	0.62484
885.5	0.61929
886	0.61385
886.5	0.60854
887	0.60336
887.5	0.5983
888	0.59337
888.5	0.58857
889	0.58389
889.5	0.57934
890	0.57492
890.5	0.57061
891	0.56644
891.5	0.56238
892	0.55845
892.5	0.55464
893	0.55096
893.5	0.54739
894	0.54394
894.5	0.54061
895	0.5374
895.5	0.5343
896	0.53132
896.5	0.52845
897	0.52569
897.5	0.52305
898	0.52051
898.5	0.51809
899	0.51577
899.5	0.51356
900	0.51146
900.5	0.50946
901	0.50757
901.5	0.50577
902	0.50408
902.5	0.5025
903	0.50101
903.5	0.49962
904	0.49833
904.5	0.49714
905	0.49604
905.5	0.49504
906	0.49414
906.5	0.49333
907	0.49261
907.5	0.49199
908	0.49146
908.5	0.49102
909	0.49067
909.5	0.49042
910	0.49025
910.5	0.49018
911	0.49019
911.5	0.49029
912	0.49048
912.5	0.49076
913	0.49113
913.5	0.49159
914	0.49213
914.5	0.49276
915	0.49347
915.5	0.49428
916	0.49517
916.5	0.49614
917	0.49721
917.5	0.49836
918	0.49959
918.5	0.50091
919	0.50232
919.5	0.50381
920	0.50539
920.5	0.50706
921	0.50881
921.5	0.51065
922	0.51257
922.5	0.51458
923	0.51668
923.5	0.51886
924	0.52113
924.5	0.52348
925	0.52593
925.5	0.52845
926	0.53107
926.5	0.53377
927	0.53656
927.5	0.53943
928	0.54239
928.5	0.54544
929	0.54857
929.5	0.55179
930	0.5551
930.5	0.55849
931	0.56197
931.5	0.56553
932	0.56918
932.5	0.57292
933	0.57674
933.5	0.58064
934	0.58463
934.5	0.5887
935	0.59286
935.5	0.5971
936	0.60141
936.5	0.60581
937	0.61029
937.5	0.61485
938	0.61949
938.5	0.6242
939	0.62898
939.5	0.63384
940	0.63878
940.5	0.64378
941	0.64885
941.5	0.65399
942	0.65919
942.5	0.66446
943	0.66978
943.5	0.67516
944	0.6806
944.5	0.68609
945	0.69162
945.5	0.69721
946	0.70283
946.5	0.70849
947	0.71419
947.5	0.71992
948	0.72568
948.5	0.73145
949	0.73725
949.5	0.74306
950	0.74888
950.5	0.7547
951	0.76051
951.5	0.76632
952	0.77212
952.5	0.7779
953	0.78366
953.5	0.78938
954	0.79507
954.5	0.80071
955	0.8063
955.5	0.81184
956	0.81731
956.5	0.82272
957	0.82804
957.5	0.83329
958	0.83844
958.5	0.84349
959	0.84844
959.5	0.85328
960	0.858
960.5	0.86259
961	0.86705
961.5	0.87138
962	0.87555
962.5	0.87958
963	0.88345
963.5	0.88715
964	0.89069
964.5	0.89405
965	0.89723
965.5	0.90022
966	0.90302
966.5	0.90563
967	0.90804
967.5	0.91025
968	0.91226
968.5	0.91405
969	0.91564
969.5	0.91701
970	0.91817
970.5	0.91911
971	0.91984
971.5	0.92035
972	0.92064
972.5	0.92072
973	0.92058
973.5	0.92023
974	0.91966
974.5	0.91889
975	0.91791
975.5	0.91672
976	0.91533
976.5	0.91375
977	0.91197
977.5	0.91
978	0.90784
978.5	0.90551
979	0.903
979.5	0.90032
980	0.89747
980.5	0.89447
981	0.89131
981.5	0.88801
982	0.88456
982.5	0.88098
983	0.87727
983.5	0.87344
984	0.8695
984.5	0.86544
985	0.86128
985.5	0.85702
986	0.85268
986.5	0.84824
987	0.84373
987.5	0.83915
988	0.8345
988.5	0.82979
989	0.82503
989.5	0.82022
990	0.81537
990.5	0.81047
991	0.80555
991.5	0.8006
992	0.79563
992.5	0.79064
993	0.78563
993.5	0.78062
994	0.77561
994.5	0.77059
995	0.76558
995.5	0.76058
996	0.75559
996.5	0.75061
997	0.74566
997.5	0.74072
998	0.73581
998.5	0.73093
999	0.72608
999.5	0.72126
1000	0.71648
1000.5	0.71173
1001	0.70703
1001.5	0.70237
1002	0.69775
1002.5	0.69317
1003	0.68865
1003.5	0.68417
1004	0.67974
1004.5	0.67537
1005	0.67105
1005.5	0.66678
1006	0.66256
1006.5	0.65841
1007	0.6543
1007.5	0.65026
1008	0.64627
1008.5	0.64235
1009	0.63848
1009.5	0.63467
1010	0.63092
1010.5	0.62723
1011	0.62361
1011.5	0.62004
1012	0.61654
1012.5	0.61309
1013	0.60971
1013.5	0.60639
1014	0.60313
1014.5	0.59993
1015	0.5968
1015.5	0.59372
1016	0.5907
1016.5	0.58775
1017	0.58486
1017.5	0.58203
1018	0.57925
1018.5	0.57654
1019	0.57389
1019.5	0.5713
1020	0.56877
1020.5	0.56629
1021	0.56388
1021.5	0.56152
1022	0.55922
1022.5	0.55698
1023	0.5548
1023.5	0.55267
1024	0.5506
1024.5	0.54859
1025	0.54663
1025.5	0.54473
1026	0.54288
1026.5	0.54109
1027	0.53935
1027.5	0.53767
1028	0.53604
1028.5	0.53447
1029	0.53294
1029.5	0.53147
1030	0.53006
1030.5	0.52869
1031	0.52738
1031.5	0.52611
1032	0.5249
1032.5	0.52374
1033	0.52263
1033.5	0.52157
1034	0.52056
1034.5	0.5196
1035	0.51868
1035.5	0.51782
1036	0.51701
1036.5	0.51624
1037	0.51552
1037.5	0.51485
1038	0.51422
1038.5	0.51365
1039	0.51311
1039.5	0.51263
1040	0.51219
1040.5	0.5118
1041	0.51146
1041.5	0.51116
1042	0.5109
1042.5	0.51069
1043	0.51053
1043.5	0.51041
1044	0.51033
1044.5	0.5103
1045	0.51032
1045.5	0.51037
1046	0.51048
1046.5	0.51062
1047	0.51081
1047.5	0.51104
1048	0.51132
1048.5	0.51164
1049	0.512
1049.5	0.51241
1050	0.51286
1050.5	0.51335
1051	0.51388
1051.5	0.51446
1052	0.51508
1052.5	0.51574
1053	0.51644
1053.5	0.51719
1054	0.51798
1054.5	0.51881
1055	0.51968
1055.5	0.5206
1056	0.52155
1056.5	0.52255
1057	0.52359
1057.5	0.52467
1058	0.5258
1058.5	0.52696
1059	0.52817
1059.5	0.52942
1060	0.53071
1060.5	0.53204
1061	0.53341
1061.5	0.53482
1062	0.53628
1062.5	0.53778
1063	0.53931
1063.5	0.54089
1064	0.54251
1064.5	0.54417
1065	0.54588
1065.5	0.54762
1066	0.54941
1066.5	0.55123
1067	0.5531
1067.5	0.55501
1068	0.55695
1068.5	0.55894
1069	0.56097
1069.5	0.56304
1070	0.56515
1070.5	0.56731
1071	0.5695
1071.5	0.57173
1072	0.574
1072.5	0.57631
1073	0.57866
1073.5	0.58106
1074	0.58349
1074.5	0.58596
1075	0.58847
1075.5	0.59102
1076	0.5936
1076.5	0.59623
1077	0.59889
1077.5	0.6016
1078	0.60434
1078.5	0.60712
1079	0.60993
1079.5	0.61278
1080	0.61567
1080.5	0.6186
1081	0.62156
1081.5	0.62456
1082	0.62759
1082.5	0.63066
1083	0.63376
1083.5	0.6369
1084	0.64007
1084.5	0.64327
1085	0.64651
1085.5	0.64978
1086	0.65308
1086.5	0.65641
1087	0.65977
1087.5	0.66316
1088	0.66657
1088.5	0.67002
1089	0.67349
1089.5	0.67699
1090	0.68052
1090.5	0.68407
1091	0.68764
1091.5	0.69124
1092	0.69486
1092.5	0.6985
1093	0.70216
1093.5	0.70584
1094	0.70954
1094.5	0.71325
1095	0.71698
1095.5	0.72073
1096	0.72449
1096.5	0.72826
1097	0.73204
1097.5	0.73583
1098	0.73963
1098.5	0.74343
1099	0.74724
1099.5	0.75106
1100	0.75487
1100.5	0.75869
1101	0.76251
1101.5	0.76632
1102	0.77013
1102.5	0.77393
1103	0.77773
1103.5	0.78151
1104	0.78529
1104.5	0.78905
1105	0.7928
1105.5	0.79653
1106	0.80025
1106.5	0.80394
1107	0.80761
1107.5	0.81125
1108	0.81488
1108.5	0.81847
1109	0.82203
1109.5	0.82556
1110	0.82905
1110.5	0.83251
1111	0.83594
1111.5	0.83932
1112	0.84266
1112.5	0.84595
1113	0.8492
1113.5	0.8524
1114	0.85555
1114.5	0.85865
1115	0.86169
1115.5	0.86468
1116	0.86761
1116.5	0.87047
1117	0.87328
1117.5	0.87602
1118	0.8787
1118.5	0.88131
1119	0.88385
1119.5	0.88632
1120	0.88872
1120.5	0.89104
1121	0.89329
1121.5	0.89546
1122	0.89755
1122.5	0.89956
1123	0.90149
1123.5	0.90334
1124	0.9051
1124.5	0.90678
1125	0.90837
1125.5	0.90987
1126	0.91129
1126.5	0.91262
1127	0.91385
1127.5	0.915
1128	0.91605
1128.5	0.91702
1129	0.91789
1129.5	0.91867
1130	0.91935
1130.5	0.91994
1131	0.92044
1131.5	0.92085
1132	0.92116
1132.5	0.92138
1133	0.9215
1133.5	0.92153
1134	0.92147
1134.5	0.92132
1135	0.92108
1135.5	0.92074
1136	0.92031
1136.5	0.9198
1137	0.91919
1137.5	0.9185
1138	0.91772
1138.5	0.91685
1139	0.9159
1139.5	0.91487
1140	0.91375
1140.5	0.91255
1141	0.91127
1141.5	0.90991
1142	0.90847
1142.5	0.90695
1143	0.90537
1143.5	0.9037
1144	0.90197
1144.5	0.90017
1145	0.89829
1145.5	0.89635
1146	0.89435
1146.5	0.89228
1147	0.89015
1147.5	0.88796
1148	0.88571
1148.5	0.88341
1149	0.88105
1149.5	0.87864
1150	0.87618
1150.5	0.87366
1151	0.8711
1151.5	0.8685
1152	0.86585
1152.5	0.86316
1153	0.86042
1153.5	0.85765
1154	0.85485
1154.5	0.85201
1155	0.84913
1155.5	0.84623
1156	0.84329
1156.5	0.84033
1157	0.83734
1157.5	0.83432
1158	0.83128
1158.5	0.82822
1159	0.82514
1159.5	0.82205
1160	0.81893
1160.5	0.8158
1161	0.81266
1161.5	0.80951
1162	0.80634
1162.5	0.80317
1163	0.79998
1163.5	0.79679
1164	0.7936
1164.5	0.7904
1165	0.7872
1165.5	0.784
1166	0.78079
1166.5	0.77759
1167	0.77439
1167.5	0.77119
1168	0.768
1168.5	0.76481
1169	0.76162
1169.5	0.75845
1170	0.75528
1170.5	0.75212
1171	0.74897
1171.5	0.74583
1172	0.74271
1172.5	0.73959
1173	0.73649
1173.5	0.7334
1174	0.73033
1174.5	0.72727
1175	0.72423
1175.5	0.7212
1176	0.71819
1176.5	0.7152
1177	0.71222
1177.5	0.70927
1178	0.70633
1178.5	0.70342
1179	0.70052
1179.5	0.69765
1180	0.69479
1180.5	0.69196
1181	0.68915
1181.5	0.68636
1182	0.68359
1182.5	0.68085
1183	0.67813
1183.5	0.67543
1184	0.67276
1184.5	0.67011
1185	0.66748
1185.5	0.66488
1186	0.66231
1186.5	0.65975
1187	0.65723
1187.5	0.65473
1188	0.65225
1188.5	0.6498
1189	0.64737
1189.5	0.64497
1190	0.6426
1190.5	0.64025
1191	0.63793
1191.5	0.63563
1192	0.63337
1192.5	0.63112
1193	0.6289
1193.5	0.62671
1194	0.62455
1194.5	0.62241
1195	0.6203
1195.5	0.61821
1196	0.61615
1196.5	0.61412
1197	0.61211
1197.5	0.61013
1198	0.60818
1198.5	0.60625
1199	0.60435
1199.5	0.60247
1200	0.60062
